# ib, Total elec. energy diff. from ref. (eV)
   1025      0.8261
   1026      0.8583
   1027      0.9743
   1028      1.0435
   1029      1.0435
   1030      1.0435
   1031      1.0435
   1032      1.1287
   1033      1.1287
   1034      1.1287
   1035      1.1287
   1036      1.1442
   1037      1.1576
   1038      1.4317
   1039      1.4511
   1040      1.4511
   1041      1.4511
   1042      1.4511
   1043      1.4855
   1044      1.4855
   1045      1.4855
   1046      1.4855
   1047      1.5130
   1048      1.5130
   1049      1.5130
   1050      1.5130
   1051      1.5467
   1052      1.5467
   1053      1.5467
   1054      1.5467
   1055      1.5679
   1056      1.5679
   1057      1.5679
   1058      1.5679
   1059      1.5898
   1060      1.5898
   1061      1.5898
   1062      1.5898
   1063      1.6351
   1064      1.7272
   1065      1.7272
   1066      1.7272
   1067      1.7272
   1068      1.7441
   1069      1.7441
   1070      1.7441
   1071      1.7441
   1072      1.7441
   1073      1.7441
   1074      1.7441
   1075      1.7441
   1076      1.7607
   1077      1.7607
   1078      1.7607
   1079      1.7607
   1080      1.8577
   1081      1.8577
   1082      1.8577
   1083      1.8577
   1084      1.9258
   1085      1.9258
   1086      1.9258
   1087      1.9258
   1088      1.9308
